#
#   version : 20090611
#    num_fr : 129
#      time : 20140812 03:28:03.539 UTC
#      unix : 1407814083.539983
#       ntp : LOCK 1101 277926 335
#       seq : 26711841
#       mul : 0 [A]
#      site : 01
#    latlon : 45.5749 -94.3965 370.0
#      text : Collegeville
#     label : 
#     plate : metal_20100816_20100506-404-gd3
#      geom : 640 480
#    reject : 0
#
#  fr    time   sum     seq       cx       cy      th      phi    lsp    mag  flag
   27  -0.167  7748 26711836  325.234   14.415  63.671   56.580  -9.36  -2.54  0000
   28  -0.133  8225 26711837  337.925   17.968  62.946   59.880  -9.17  -2.35  0000
   29  -0.100  6787 26711838  345.266   20.179  62.584   61.821  -8.98  -2.16  0000
   30  -0.067  6284 26711839  352.409   24.247  61.756   63.820  -9.01  -2.19  0000
   31  -0.033  8214 26711840  356.106   28.101  60.863   64.968  -8.98  -2.16  0000
   32   0.000  8265 26711841  357.996   30.873  60.190   65.612  -9.05  -2.23  0000
   33   0.033  6292 26711842  360.865   34.476  59.358   66.578  -9.09  -2.27  0000
   34   0.067  7904 26711843  363.496   39.926  58.014   67.629  -8.96  -2.14  0000
   35   0.100  7907 26711844  366.024   45.984  56.522   68.743  -9.13  -2.31  0000
   36   0.133  7808 26711845  369.830   50.581  55.564   70.142  -8.90  -2.08  0000
   37   0.167  7190 26711846  371.857   54.526  54.664   71.036  -8.99  -2.17  0000
   38   0.200  6354 26711847  373.717   58.422  53.778   71.905  -9.06  -2.24  0000
   39   0.234  7587 26711848  377.537   62.810  52.965   73.402  -8.87  -2.05  0000
   40   0.267  7491 26711849  380.575   68.801  51.691   74.895  -8.91  -2.09  0000
   41   0.300  7515 26711850  382.753   76.465  49.932   76.409  -8.97  -2.15  0000
   42   0.334  7962 26711851  385.174   82.938  48.551   77.938  -8.98  -2.16  0000
   43   0.367  7265 26711852  385.962   88.761  47.176   78.966  -8.75  -1.93  0000
   44   0.400  7386 26711853  386.410   94.781  45.731   79.976  -8.84  -2.02  0000
   45   0.434  7529 26711854  386.202  100.598  44.272   80.808  -8.80  -1.98  0000
   46   0.467  8010 26711855  386.045  106.163  42.896   81.668  -8.90  -2.08  0000
   47   0.501  7077 26711856  387.105  109.090  42.332   82.511  -8.63  -1.81  0000
   48   0.534  7106 26711857  387.422  114.282  41.137   83.549  -8.58  -1.76  0000
   49   0.567  6552 26711858  389.133  118.578  40.369   84.933  -8.53  -1.71  0000
   50   0.601  6507 26711859  390.217  124.561  39.147   86.511  -8.96  -2.14  0000
   51   0.634  8258 26711860  392.726  130.345  38.229   88.617  -8.75  -1.93  0000
   52   0.667  5787 26711861  395.124  136.518  37.264   90.878  -8.61  -1.79  0000
   53   0.701  8125 26711862  395.584  142.631  36.039   92.588  -8.69  -1.87  0000
   54   0.734  7110 26711863  397.323  150.359  34.754   95.302  -8.61  -1.79  0000
   55   0.767  5625 26711864  397.502  157.320  33.408   97.448  -8.87  -2.05  0000
   56   0.801  6664 26711865  397.844  164.868  32.039  100.017  -8.84  -2.02  0000
   57   0.834  6464 26711866  398.480  173.916  30.543  103.455  -8.68  -1.86  0000
   58   0.868  6902 26711867  399.048  178.678  29.855  105.469  -8.40  -1.58  0000
   59   0.901  5780 26711868  398.328  186.266  28.481  108.357  -8.48  -1.66  0000
   60   0.934  4663 26711869  398.619  190.238  27.945  110.183  -8.14  -1.32  0000
   61   0.968  4649 26711870  397.178  194.247  27.036  111.572  -8.12  -1.30  0000
   62   1.001  5762 26711871  397.974  198.335  26.657  113.757  -8.30  -1.48  0000
   63   1.034  5796 26711872  398.099  199.044  26.592  114.138  -8.07  -1.25  0000
   64   1.068  4674 26711873  399.823  200.954  26.753  115.559  -7.57  -0.75  0000
   65   1.101  4608 26711874  400.097  200.798  26.839  115.558  -7.30  -0.48  0000
   66   1.134  3705 26711875  401.181  199.053  27.319  115.009  -7.31  -0.49  0000
   67   1.168  3413 26711876  401.431  197.798  27.541  114.480  -7.16  -0.34  0000
   68   1.201  4205 26711877  403.151  195.236  28.286  113.762  -7.38  -0.56  0000
   69   1.235  3641 26711878  404.888  192.944  29.003  113.204  -7.65  -0.83  0000
   70   1.268  4386 26711879  404.305  191.531  29.062  112.419  -7.32  -0.50  0000
   71   1.301  3184 26711880  404.140  187.677  29.574  110.708  -7.19  -0.37  0000
   72   1.335  2993 26711881  403.516  183.335  30.085  108.719  -7.51  -0.69  0000
   73   1.368  5227 26711882  401.328  179.414  30.225  106.481  -7.29  -0.47  0000
   74   1.401  3091 26711883  400.889  179.699  30.083  106.457  -6.40   0.42  0000
   77   1.502  3043 26711886  398.019  184.869  28.631  107.665  -6.82  -0.00  0000
   78   1.535  3782 26711887  397.237  186.416  28.217  108.075  -6.75   0.07  0000
   79   1.568  3997 26711888  398.181  190.898  27.749  110.344  -7.05  -0.23  0000
   80   1.602  3940 26711889  397.469  193.969  27.142  111.531  -6.92  -0.10  0000
   81   1.635  4693 26711890  399.079  196.322  27.186  113.115  -7.25  -0.43  0000
   82   1.668  5111 26711891  399.187  201.734  26.504  115.770  -7.16  -0.34  0000
   83   1.702  4177 26711892  399.661  206.713  26.020  118.424  -7.25  -0.43  0000
   84   1.735  2633 26711893  400.242  211.878  25.604  121.293  -7.29  -0.47  0000
   85   1.768  3907 26711894  401.231  216.605  25.398  124.090  -7.17  -0.35  0000
   87   1.835  3370 26711896  403.909  221.734  25.660  127.448  -6.65   0.17  0000
   88   1.869  2461 26711897  405.081  223.010  25.871  128.355  -6.34   0.48  0000
   89   1.902  2522 26711898  408.102  221.460  26.772  127.996  -5.92   0.90  0000
   91   1.969  3792 26711900  407.983  215.322  27.237  124.739  -6.75   0.07  0000
   92   2.002  3478 26711901  405.550  211.311  26.993  122.179  -7.12  -0.30  0000
   93   2.035  3896 26711902  405.770  207.271  27.464  120.183  -6.85  -0.03  0000
   94   2.069  3302 26711903  404.928  203.193  27.714  117.978  -7.20  -0.38  0000
   95   2.102  4340 26711904  401.550  199.381  27.365  115.267  -7.06  -0.24  0000
   96   2.135  4030 26711905  402.981  195.054  28.270  113.632  -6.98  -0.16  0000
  101   2.302  3645 26711910  405.137  180.966  30.813  108.246  -6.58   0.24  0000
  105   2.436  4407 26711914  405.012  172.829  32.103  105.111  -7.09  -0.27  0000
  106   2.469  3662 26711915  406.096  171.008  32.641  104.780  -7.44  -0.62  0000
  108   2.536  4903 26711917  406.960  168.031  33.332  103.989  -6.90  -0.08  0000
  109   2.569  3479 26711918  409.020  166.140  34.092  103.949  -6.95  -0.13  0000
  111   2.636  3227 26711920  411.001  163.846  34.906  103.755  -6.98  -0.16  0000
  112   2.669  3826 26711921  414.153  162.120  35.870  104.080  -6.69   0.13  0000
  114   2.736  4472 26711923  417.226  162.117  36.526  104.918  -6.76   0.06  0000
  116   2.803  3077 26711925  420.991  161.566  37.432  105.731  -7.12  -0.30  0000
  118   2.870  3748 26711927  424.211  162.249  38.025  106.761  -6.99  -0.17  0000
  119   2.903  2705 26711928  426.922  163.932  38.356  107.957  -6.70   0.12  0000
  122   3.003  4101 26711931  431.006  166.939  38.815  109.871  -6.82   0.00  0000
  125   3.103  3214 26711934  432.990  170.969  38.676  111.627  -6.63   0.19  0000
  126   3.136  3559 26711935  434.783  172.507  38.878  112.518  -7.25  -0.43  0000
  127   3.170  3561 26711936  434.946  175.480  38.501  113.549  -6.94  -0.12  0000
  128   3.203  3301 26711937  434.991  178.999  38.036  114.764  -7.03  -0.21  0000
  130   3.270  2029 26711939  435.118  184.493  37.362  116.729  -6.35   0.47  0000
  131   3.303  3603 26711940  434.020  188.139  36.647  117.848  -7.03  -0.21  0000
  132   3.337  3818 26711941  431.324  192.861  35.425  119.127  -7.08  -0.26  0000
  133   3.370  4100 26711942  428.641  196.871  34.306  120.209  -7.45  -0.63  0000
  134   3.403  3507 26711943  426.328  200.813  33.304  121.400  -7.56  -0.74  0000
  135   3.437  4621 26711944  424.926  205.109  32.517  122.974  -7.43  -0.61  0000
  136   3.470  3562 26711945  421.236  208.625  31.239  123.888  -7.40  -0.58  0000
  137   3.504  4338 26711946  419.945  212.701  30.545  125.540  -7.59  -0.77  0000
  138   3.537  4312 26711947  418.078  217.019  29.710  127.294  -7.41  -0.59  0000
  139   3.570  4392 26711948  415.441  220.179  28.784  128.455  -7.18  -0.36  0000
  140   3.604  3700 26711949  414.637  224.116  28.306  130.340  -7.11  -0.29  0000
  141   3.637  3520 26711950  413.550  230.281  27.670  133.432  -7.47  -0.65  0000
  142   3.670  4419 26711951  414.477  234.668  27.726  135.854  -6.39   0.43  0000
  143   3.704  3773 26711952  411.978  238.982  26.909  138.014  -7.16  -0.34  0000
  144   3.737  4234 26711953  412.854  242.784  27.057  140.157  -7.15  -0.33  0000
  145   3.770  5112 26711954  412.958  248.438  27.021  143.280  -7.35  -0.53  0000
  146   3.804  3591 26711955  411.429  252.686  26.611  145.647  -7.52  -0.70  0000
  147   3.837  3788 26711956  411.732  256.805  26.743  147.943  -6.81   0.01  0000
  148   3.871  3463 26711957  412.748  261.232  27.119  150.342  -7.08  -0.26  0000
  149   3.904  3460 26711958  411.593  264.937  26.930  152.453  -6.87  -0.05  0000
  150   3.937  3585 26711959  413.870  266.066  27.586  152.883  -6.79   0.03  0000
  151   3.971  3938 26711960  414.150  269.893  27.832  154.893  -6.67   0.15  0000
  153   4.037  3607 26711962  415.853  272.644  28.429  156.150  -6.78   0.04  0000
  154   4.071  2898 26711963  416.863  272.085  28.668  155.756  -6.68   0.14  0000
  155   4.104  4098 26711964  417.258  271.857  28.762  155.599  -6.90  -0.08  0000
  156   4.137  3390 26711965  417.487  271.829  28.821  155.562  -7.10  -0.28  0000
  157   4.171  3390 26711966  420.750  269.852  29.598  154.257  -6.86  -0.04  0000
  158   4.204  3470 26711967  421.204  265.609  29.545  152.100  -6.95  -0.13  0000
  159   4.238  4432 26711968  421.316  263.612  29.508  151.089  -7.03  -0.21  0000
  160   4.271  4565 26711969  421.509  259.902  29.458  149.205  -6.71   0.11  0000
  161   4.304  4180 26711970  422.439  255.432  29.632  146.915  -7.31  -0.49  0000
  162   4.338  5179 26711971  422.322  249.718  29.566  144.027  -7.44  -0.62  0000
  163   4.371  4447 26711972  423.096  242.989  29.836  140.651  -7.14  -0.32  0000
  164   4.404  4033 26711973  421.205  235.437  29.514  136.759  -6.85  -0.03  0000
  165   4.438  2813 26711974  420.397  230.904  29.476  134.419  -6.97  -0.15  0000
  166   4.471  4256 26711975  420.007  225.320  29.658  131.604  -6.82  -0.00  0000
  169   4.571  3561 26711978  417.067  211.666  29.892  124.571  -6.83  -0.01  0000
  170   4.605  3324 26711979  416.963  205.874  30.416  121.861  -7.08  -0.26  0000
  171   4.638  3463 26711980  415.315  199.248  30.720  118.548  -7.36  -0.54  0000
  172   4.671  4231 26711981  415.007  193.449  31.343  115.973  -6.95  -0.13  0000
  174   4.738  2615 26711983  413.913  185.832  32.094  112.574  -6.96  -0.14  0000
  175   4.771  3674 26711984  414.863  179.165  33.276  110.230  -7.04  -0.22  0000
  176   4.805  2301 26711985  414.482  175.143  33.802  108.642  -7.59  -0.77  0000
  178   4.872  4102 26711987  416.134  165.312  35.752  105.668  -7.21  -0.39  0000
  180   4.938  4014 26711989  416.961  157.601  37.251  103.423  -7.02  -0.20  0000
  181   4.972  3360 26711990  417.374  151.979  38.341  101.842  -7.46  -0.64  0000
  183   5.038  3981 26711992  417.842  139.637  40.756   98.542  -7.08  -0.26  0000
