#
#   version : 20090611
#    num_fr : 56
#      time : 20120910 05:28:33.816 UTC
#      unix : 1347254913.816262
#       ntp : LOCK 100 562866 590
#       seq : 41852106
#       mul : 0 [A]
#      site : 01
#    latlon : 45.5749 -94.3965 370.0
#      text : Collegeville
#     label : 
#     plate : metal_20100816_20100506-404-gd3
#      geom : 640 480
#    reject : 0
#
#  fr    time   sum     seq       cx       cy      th      phi    lsp    mag  flag
   30  -1.201  1646 41852070  461.283  247.787  40.313  143.449  -6.20   0.62  0000
   31  -1.168  1851 41852071  461.240  247.698  40.302  143.415  -6.41   0.41  0000
   32  -1.134  1546 41852072  461.276  247.492  40.312  143.338  -6.41   0.41  0000
   33  -1.101  1828 41852073  461.565  247.046  40.395  143.174  -6.26   0.56  0000
   34  -1.068  1858 41852074  461.918  247.165  40.493  143.222  -6.32   0.50  0000
   35  -1.034  2281 41852075  463.699  246.398  40.995  142.956  -6.82  -0.00  0000
   36  -1.001  2450 41852076  464.582  245.483  41.248  142.630  -7.16  -0.34  0000
   37  -0.968  2472 41852077  464.592  246.074  41.246  142.847  -7.41  -0.59  0000
   38  -0.934  2742 41852078  464.953  245.053  41.355  142.478  -7.55  -0.73  0000
   39  -0.901  3370 41852079  465.365  244.604  41.475  142.320  -7.97  -1.15  0000
   40  -0.868  2929 41852080  465.969  244.344  41.646  142.235  -7.66  -0.84  0000
   41  -0.834  3251 41852081  466.753  243.578  41.873  141.971  -7.95  -1.13  0000
   42  -0.801  3526 41852082  467.082  243.402  41.967  141.913  -8.05  -1.23  0000
   43  -0.767  3411 41852083  467.752  243.104  42.158  141.818  -7.95  -1.13  0000
   44  -0.734  3882 41852084  468.373  242.395  42.341  141.576  -8.27  -1.45  0000
   45  -0.701  3959 41852085  469.626  242.449  42.691  141.620  -8.20  -1.38  0000
   46  -0.667  3822 41852086  470.400  241.958  42.915  141.462  -8.22  -1.40  0000
   47  -0.634  3228 41852087  470.761  241.473  43.023  141.299  -8.13  -1.31  0000
   48  -0.601  3856 41852088  471.579  240.925  43.261  141.125  -8.27  -1.45  0000
   49  -0.567  3896 41852089  471.334  240.340  43.201  140.914  -8.31  -1.49  0000
   50  -0.534  4374 41852090  472.138  240.077  43.431  140.841  -8.43  -1.61  0000
   51  -0.501  5234 41852091  472.837  239.202  43.642  140.555  -8.80  -1.98  0000
   52  -0.467  4492 41852092  474.328  238.801  44.068  140.455  -8.48  -1.66  0000
   53  -0.434  5173 41852093  474.737  238.498  44.189  140.362  -8.73  -1.91  0000
   54  -0.400  4504 41852094  475.751  238.087  44.481  140.249  -8.61  -1.79  0000
   55  -0.367  4360 41852095  476.077  237.839  44.578  140.174  -8.41  -1.59  0000
   56  -0.334  4593 41852096  476.574  237.341  44.728  140.019  -8.60  -1.78  0000
   57  -0.300  4873 41852097  477.304  236.677  44.947  139.816  -8.68  -1.86  0000
   58  -0.267  5156 41852098  477.818  236.515  45.095  139.777  -8.82  -2.00  0000
   59  -0.234  5046 41852099  478.605  235.864  45.331  139.582  -8.72  -1.90  0000
   60  -0.200  5840 41852100  478.944  235.264  45.441  139.393  -9.08  -2.26  0000
   61  -0.167  5637 41852101  479.976  234.856  45.741  139.291  -9.00  -2.18  0000
   62  -0.133  5473 41852102  481.041  234.187  46.058  139.105  -8.81  -1.99  0000
   63  -0.100  5170 41852103  481.527  233.631  46.209  138.939  -8.74  -1.92  0000
   64  -0.067  5043 41852104  481.981  233.106  46.351  138.783  -8.85  -2.03  0000
   65  -0.033  6009 41852105  482.858  232.614  46.611  138.653  -9.16  -2.34  0000
   66   0.000  6084 41852106  483.576  232.133  46.827  138.523  -9.11  -2.29  0000
   67   0.033  5711 41852107  484.077  231.728  46.980  138.410  -9.09  -2.27  0000
   68   0.067  5874 41852108  484.785  231.036  47.200  138.214  -9.03  -2.21  0000
   69   0.100  5710 41852109  485.694  230.256  47.480  138.000  -8.98  -2.16  0000
   70   0.133  5911 41852110  485.968  229.945  47.567  137.911  -9.11  -2.29  0000
   71   0.167  5693 41852111  487.444  229.424  48.000  137.804  -8.85  -2.03  0000
   72   0.200  5193 41852112  488.182  229.157  48.218  137.749  -8.72  -1.90  0000
   73   0.234  5344 41852113  488.511  228.476  48.332  137.549  -8.88  -2.06  0000
   74   0.267  5665 41852114  488.619  228.138  48.374  137.447  -8.96  -2.14  0000
   75   0.300  5317 41852115  488.813  227.747  48.442  137.333  -8.91  -2.09  0000
   76   0.334  4882 41852116  490.564  227.361  48.951  137.286  -8.59  -1.77  0000
   77   0.367  4719 41852117  491.399  226.823  49.206  137.155  -8.60  -1.78  0000
   78   0.400  3920 41852118  491.616  226.442  49.281  137.047  -8.34  -1.52  0000
   79   0.434  3779 41852119  492.470  225.816  49.545  136.892  -8.20  -1.38  0000
   80   0.467  3414 41852120  492.791  225.534  49.646  136.820  -8.10  -1.28  0000
   81   0.500  3301 41852121  493.375  224.964  49.833  136.672  -7.81  -0.99  0000
   82   0.534  2646 41852122  493.700  224.750  49.933  136.622  -7.36  -0.54  0000
   83   0.567  2105 41852123  494.071  224.069  50.064  136.432  -6.59   0.23  0000
   84   0.601  1896 41852124  494.479  223.745  50.192  136.353  -6.53   0.29  0000
   85   0.634  1792 41852125  494.457  223.673  50.189  136.330  -6.07   0.75  0000
