#
#   version : 20090611
#    num_fr : 66
#      time : 20140907 08:30:27.245 UTC
#      unix : 1410078627.245171
#       ntp : LOCK -2877 366150 3812
#       seq : 50909270
#       mul : 0 [A]
#      site : 01
#    latlon : 45.5749 -94.3965 370.0
#      text : Collegeville
#     label : 
#     plate : metal_20100816_20100506-404-gd3
#      geom : 640 480
#    reject : 0
#
#  fr    time   sum     seq       cx       cy      th      phi    lsp    mag  flag
   30  -1.201  4187 50909234  528.152  120.772  69.695  113.981  -6.32   0.50  0000
   31  -1.168  4022 50909235  527.861  120.994  69.585  113.990  -5.71   1.11  0000
   32  -1.134  3354 50909236  528.323  120.919  69.719  114.030  -6.53   0.29  0000
   34  -1.068  2989 50909238  531.007  121.969  70.278  114.548  -6.65   0.17  0000
   35  -1.034  3444 50909239  531.090  121.891  70.312  114.542  -6.87  -0.05  0000
   36  -1.001  3593 50909240  531.380  121.986  70.376  114.594  -7.00  -0.18  0000
   37  -0.968  4168 50909241  532.891  122.851  70.654  114.936  -6.96  -0.14  0000
   38  -0.934  3123 50909242  533.298  123.007  70.741  115.012  -7.29  -0.47  0000
   39  -0.901  3487 50909243  533.430  122.983  70.780  115.022  -7.04  -0.22  0000
   40  -0.868  4331 50909244  535.085  124.446  71.014  115.493  -7.20  -0.38  0000
   41  -0.834  4083 50909245  535.778  123.978  71.270  115.479  -7.16  -0.34  0000
   42  -0.801  3533 50909246  536.189  124.033  71.374  115.535  -7.45  -0.63  0000
   43  -0.767  3642 50909247  536.273  123.990  71.403  115.536  -7.13  -0.31  0000
   44  -0.734  2721 50909248  537.944  124.457  71.791  115.810  -7.51  -0.69  0000
   45  -0.701  3865 50909249  538.303  124.948  71.819  115.944  -7.69  -0.87  0000
   46  -0.667  5008 50909250  538.399  125.046  71.831  115.974  -7.41  -0.59  0000
   47  -0.634  3942 50909251  538.633  125.080  71.890  116.006  -7.58  -0.76  0000
   48  -0.601  3337 50909252  540.647  125.720  72.352  116.346  -7.68  -0.86  0000
   49  -0.567  4584 50909253  540.569  126.051  72.283  116.402  -7.84  -1.02  0000
   50  -0.534  4598 50909254  541.425  126.654  72.434  116.610  -8.07  -1.25  0000
   51  -0.501  4915 50909255  541.676  126.861  72.474  116.676  -8.14  -1.32  0000
   52  -0.467  6494 50909256  541.880  126.850  72.532  116.695  -8.31  -1.49  0000
   53  -0.434  6433 50909257  543.588  127.467  72.919  116.993  -8.54  -1.72  0000
   54  -0.400  5776 50909258  543.650  127.760  72.895  117.056  -8.68  -1.86  0000
   55  -0.367  4946 50909259  543.872  128.122  72.906  117.149  -8.54  -1.72  0000
   56  -0.334  7016 50909260  544.649  127.899  73.153  117.186  -8.61  -1.79  0000
   57  -0.300  5762 50909261  544.960  128.141  73.207  117.265  -8.60  -1.78  0000
   58  -0.267  5904 50909262  545.853  129.104  73.323  117.542  -8.69  -1.87  0000
   59  -0.234  5490 50909263  546.372  129.081  73.471  117.590  -8.62  -1.80  0000
   60  -0.200  5455 50909264  546.678  129.359  73.519  117.674  -8.80  -1.98  0000
   61  -0.167  6669 50909265  547.172  129.120  73.690  117.678  -9.00  -2.18  0000
   62  -0.133  5852 50909266  548.353  129.774  73.932  117.922  -8.81  -1.99  0000
   63  -0.100  7812 50909267  548.596  129.933  73.979  117.977  -8.81  -1.99  0000
   64  -0.067  7548 50909268  548.967  130.596  73.994  118.141  -8.85  -2.03  0000
   65  -0.033  7889 50909269  549.239  130.261  74.116  118.104  -9.09  -2.27  0000
   66   0.000  8053 50909270  549.949  130.333  74.306  118.187  -9.10  -2.28  0000
   67   0.033  6556 50909271  550.822  131.280  74.426  118.454  -8.85  -2.03  0000
   68   0.067  7331 50909272  551.066  131.556  74.458  118.531  -8.88  -2.06  0000
   69   0.100  6200 50909273  551.306  131.657  74.513  118.574  -8.84  -2.02  0000
   70   0.133  6190 50909274  551.469  131.864  74.532  118.629  -8.88  -2.06  0000
   71   0.167  5876 50909275  552.415  132.402  74.729  118.823  -8.77  -1.95  0000
   72   0.200  6851 50909276  553.846  132.213  75.161  118.924  -8.83  -2.01  0000
   73   0.234  6009 50909277  554.157  132.290  75.240  118.968  -8.74  -1.92  0000
   74   0.267  6143 50909278  554.418  132.370  75.304  119.008  -8.70  -1.88  0000
   75   0.300  6100 50909279  554.802  132.979  75.334  119.160  -8.64  -1.82  0000
   76   0.334  6588 50909280  554.880  133.092  75.342  119.189  -8.68  -1.86  0000
   77   0.367  4785 50909281  556.237  134.108  75.598  119.510  -8.65  -1.83  0000
   78   0.400  5896 50909282  556.310  134.327  75.591  119.558  -8.48  -1.66  0000
   79   0.434  4850 50909283  557.077  133.981  75.856  119.563  -8.44  -1.62  0000
   80   0.467  5598 50909284  556.898  134.681  75.714  119.680  -8.42  -1.60  0000
   81   0.501  6527 50909285  556.850  134.924  75.670  119.722  -8.41  -1.59  0000
   82   0.534  4630 50909286  557.588  135.007  75.871  119.806  -8.57  -1.75  0000
   83   0.567  6933 50909287  559.125  135.510  76.251  120.041  -8.71  -1.89  0000
   84   0.601  6253 50909288  559.207  135.634  76.259  120.072  -8.40  -1.58  0000
   85   0.634  4451 50909289  559.539  135.724  76.344  120.119  -8.22  -1.40  0000
   86   0.667  6262 50909290  559.458  136.041  76.280  120.172  -8.35  -1.53  0000
   87   0.701  3842 50909291  559.751  136.166  76.349  120.222  -7.87  -1.05  0000
   88   0.734  5121 50909292  561.143  136.831  76.670  120.473  -7.90  -1.08  0000
   89   0.767  3418 50909293  561.398  136.764  76.752  120.482  -8.15  -1.33  0000
   90   0.801  4999 50909294  561.451  136.928  76.747  120.518  -8.47  -1.65  0000
   91   0.834  4999 50909295  561.677  137.195  76.779  120.589  -8.48  -1.66  0000
   92   0.868  4417 50909296  562.010  137.343  76.858  120.646  -8.09  -1.27  0000
   93   0.901  6194 50909297  563.433  137.963  77.196  120.888  -8.19  -1.37  0000
   94   0.934  4536 50909298  563.652  138.159  77.236  120.944  -8.17  -1.35  0000
   95   0.968  4788 50909299  563.788  138.119  77.281  120.948  -7.81  -0.99  0000
   96   1.001  3096 50909300  563.889  138.248  77.295  120.981  -7.19  -0.37  0000
