#
#   version : 20090611
#    num_fr : 37
#      time : 20141015 06:53:53.107 UTC
#      unix : 1413356033.107709
#       ntp : LOCK 4964 302611 3951
#       seq : 149130964
#       mul : 0 [A]
#      site : 01
#    latlon : 45.5749 -94.3965 370.0
#      text : Collegeville
#     label : 
#     plate : metal_20100816_20100506-404-gd3
#      geom : 640 480
#    reject : 0
#
#  fr    time   sum     seq       cx       cy      th      phi    lsp    mag  flag
   29  -1.134  1848 149130930  354.825  258.915  11.638  155.366  -5.93   0.89  0000
   31  -1.068  2039 149130932  358.242  257.314  12.461  152.697  -6.53   0.29  0000
   32  -1.034  2179 149130933  358.321  256.620  12.456  151.868  -6.75   0.07  0000
   33  -1.001  2891 149130934  359.780  256.160  12.826  151.112  -7.39  -0.57  0000
   34  -0.968  3092 149130935  362.444  255.092  13.500  149.589  -7.46  -0.64  0000
   35  -0.934  3151 149130936  363.747  254.251  13.827  148.560  -7.43  -0.61  0000
   36  -0.901  3506 149130937  364.675  252.922  14.052  147.088  -8.04  -1.22  0000
   37  -0.868  3643 149130938  365.443  251.374  14.241  145.441  -7.84  -1.02  0000
   38  -0.834  3813 149130939  367.647  250.864  14.826  144.882  -8.12  -1.30  0000
   39  -0.801  4072 149130940  369.123  249.969  15.219  143.995  -8.25  -1.43  0000
   40  -0.767  4131 149130941  369.810  249.065  15.404  143.128  -8.36  -1.54  0000
   41  -0.734  3708 149130942  371.050  247.851  15.744  142.009  -8.24  -1.42  0000
   42  -0.701  4833 149130943  373.415  246.457  16.392  140.834  -8.43  -1.61  0000
   43  -0.667  4052 149130944  374.594  245.220  16.728  139.802  -8.27  -1.45  0000
   44  -0.634  4404 149130945  375.882  244.362  17.089  139.148  -8.46  -1.64  0000
   45  -0.601  5028 149130946  377.285  243.222  17.491  138.293  -8.62  -1.80  0000
   46  -0.567  5088 149130947  378.744  242.057  17.913  137.461  -8.70  -1.88  0000
   47  -0.534  5020 149130948  380.876  240.581  18.528  136.493  -8.77  -1.95  0000
   48  -0.501  5428 149130949  381.915  239.698  18.835  135.915  -8.89  -2.07  0000
   49  -0.467  6203 149130950  383.687  238.242  19.363  135.012  -9.06  -2.24  0000
   50  -0.434  4871 149130951  385.835  237.069  19.982  134.412  -8.60  -1.78  0000
   51  -0.400  5110 149130952  387.607  235.857  20.506  133.771  -8.58  -1.76  0000
   52  -0.367  6372 149130953  388.712  234.310  20.874  132.833  -9.13  -2.31  0000
   53  -0.334  5093 149130954  390.938  233.226  21.518  132.411  -8.54  -1.72  0000
   54  -0.300  5089 149130955  392.807  232.093  22.072  131.928  -8.60  -1.78  0000
   55  -0.267  6888 149130956  393.794  231.019  22.393  131.373  -9.32  -2.50  0000
   56  -0.234  7175 149130957  395.950  229.078  23.076  130.469  -9.31  -2.49  0000
   57  -0.200  5580 149130958  397.674  228.008  23.595  130.079  -8.79  -1.97  0000
   58  -0.167  6589 149130959  399.355  226.829  24.112  129.632  -9.20  -2.38  0000
   59  -0.133  5854 149130960  401.644  225.269  24.815  129.081  -8.92  -2.10  0000
   60  -0.100  5793 149130961  403.430  223.891  25.378  128.580  -8.86  -2.04  0000
   61  -0.067  5351 149130962  404.890  222.533  25.856  128.058  -8.83  -2.01  0000
   62  -0.033  5347 149130963  407.226  221.183  26.564  127.705  -8.67  -1.85  0000
   63   0.000  8240 149130964  408.569  219.102  27.073  126.820  -9.45  -2.63  0000
   64   0.033  7093 149130965  410.129  218.700  27.509  126.872  -9.23  -2.41  0000
   65   0.067  5453 149130966  411.315  217.259  27.932  126.330  -8.73  -1.91  0000
   66   0.100  2660 149130967  413.740  216.149  28.650  126.178  -7.18  -0.36  0000
