#
#   version : 20090611
#    num_fr : 129
#      time : 20140805 03:00:34.081 UTC
#      unix : 1407207634.081240
#       ntp : LOCK -254 295150 374
#       seq : 8536990
#       mul : 0 [A]
#      site : 01
#    latlon : 45.5749 -94.3965 370.0
#      text : Collegeville
#     label : 
#     plate : metal_20100816_20100506-404-gd3
#      geom : 640 480
#    reject : 0
#
#  fr    time   sum     seq       cx       cy      th      phi    lsp    mag  flag
   29  -0.868  8178 8536964  220.358  187.753  29.530   -3.048  -9.31  -2.49  0000
   30  -0.834  8506 8536965  221.160  186.882  29.475   -2.445  -9.35  -2.53  0000
   31  -0.801  8919 8536966  221.528  186.828  29.399   -2.313  -9.46  -2.64  0000
   32  -0.767  8793 8536967  221.849  187.440  29.234   -2.476  -9.59  -2.77  0000
   33  -0.734  8514 8536968  222.769  187.033  29.086   -2.026  -9.48  -2.66  0000
   34  -0.701  8644 8536969  223.618  186.869  28.919   -1.697  -9.36  -2.54  0000
   35  -0.667  8059 8536970  223.972  187.720  28.709   -1.950  -9.27  -2.45  0000
   36  -0.634  8574 8536971  224.843  186.779  28.656   -1.279  -9.34  -2.52  0000
   37  -0.601  8840 8536972  225.278  186.789  28.557   -1.146  -9.49  -2.67  0000
   38  -0.567  8971 8536973  225.547  186.714  28.508   -1.029  -9.62  -2.80  0000
   39  -0.534  9150 8536974  226.261  186.919  28.316   -0.888  -9.52  -2.70  0000
   40  -0.501  8320 8536975  226.941  187.492  28.075   -0.916  -9.34  -2.52  0000
   41  -0.467  8297 8536976  227.613  186.713  28.047   -0.363  -9.24  -2.42  0000
   42  -0.434  8145 8536977  228.219  186.776  27.903   -0.190  -9.30  -2.48  0000
   43  -0.400  8914 8536978  228.579  186.696  27.836   -0.036  -9.57  -2.75  0000
   44  -0.367  8674 8536979  228.783  186.671  27.795    0.042  -9.61  -2.79  0000
   45  -0.334  8259 8536980  229.659  186.781  27.584    0.289  -9.44  -2.62  0000
   46  -0.300  7992 8536981  230.673  186.628  27.386    0.701  -9.30  -2.48  0000
   47  -0.267  8009 8536982  231.039  186.626  27.306    0.827  -9.25  -2.43  0000
   48  -0.234  8327 8536983  231.523  186.643  27.198    0.988  -9.38  -2.56  0000
   49  -0.200  8633 8536984  231.943  186.603  27.113    1.152  -9.63  -2.81  0000
   50  -0.167  8987 8536985  232.542  186.532  26.995    1.393  -9.60  -2.78  0000
   51  -0.133  9012 8536986  233.534  186.482  26.788    1.769  -9.45  -2.63  0000
   52  -0.100  8499 8536987  234.224  186.571  26.625    1.979  -9.31  -2.49  0000
   53  -0.067  7687 8536988  234.798  186.375  26.535    2.275  -9.21  -2.39  0000
   54  -0.033  8826 8536989  235.327  186.229  26.446    2.533  -9.53  -2.71  0000
   55   0.000  9251 8536990  235.612  186.422  26.353    2.554  -9.65  -2.83  0000
   56   0.033  8747 8536991  236.383  186.683  26.146    2.727  -9.54  -2.72  0000
   57   0.067  8655 8536992  237.215  186.313  26.032    3.205  -9.37  -2.55  0000
   58   0.100  8177 8536993  237.632  186.376  25.933    3.336  -9.24  -2.42  0000
   59   0.133  7926 8536994  238.086  186.389  25.836    3.506  -9.21  -2.39  0000
   60   0.167  8543 8536995  238.658  186.370  25.719    3.735  -9.52  -2.70  0000
   61   0.200  8494 8536996  238.827  186.417  25.676    3.781  -9.55  -2.73  0000
   62   0.234  7684 8536997  239.913  186.416  25.450    4.209  -9.43  -2.61  0000
   63   0.267  8330 8536998  240.572  186.220  25.347    4.559  -9.28  -2.46  0000
   64   0.300  7576 8536999  241.033  186.352  25.229    4.686  -9.17  -2.35  0000
   65   0.334  8014 8537000  241.619  186.338  25.111    4.931  -9.38  -2.56  0000
   66   0.367  8506 8537001  241.876  186.274  25.070    5.064  -9.57  -2.75  0000
   67   0.400  8625 8537002  242.753  186.513  24.848    5.320  -9.49  -2.67  0000
   68   0.434  8037 8537003  243.943  186.260  24.652    5.932  -9.29  -2.47  0000
   69   0.467  7446 8537004  244.380  186.032  24.605    6.220  -9.17  -2.35  0000
   70   0.501  7667 8537005  244.836  185.853  24.545    6.494  -9.18  -2.36  0000
   71   0.534  8415 8537006  245.451  185.989  24.398    6.700  -9.48  -2.66  0000
   72   0.567  8263 8537007  245.800  186.175  24.295    6.769  -9.49  -2.67  0000
   73   0.601  8408 8537008  246.982  186.151  24.065    7.301  -9.31  -2.49  0000
   74   0.634  7532 8537009  247.344  186.091  24.004    7.489  -9.17  -2.35  0000
   75   0.667  7136 8537010  247.823  186.097  23.909    7.702  -9.06  -2.24  0000
   76   0.701  7811 8537011  248.395  186.188  23.781    7.921  -9.31  -2.49  0000
   77   0.734  8030 8537012  248.830  186.142  23.704    8.140  -9.44  -2.62  0000
   78   0.767  8173 8537013  250.155  186.093  23.457    8.776  -9.31  -2.49  0000
   79   0.801  7370 8537014  250.462  186.011  23.414    8.956  -9.16  -2.34  0000
   80   0.834  7109 8537015  250.753  186.040  23.353    9.081  -9.08  -2.26  0000
   81   0.868  7091 8537016  251.320  186.061  23.241    9.341  -9.10  -2.28  0000
   82   0.901  7762 8537017  251.824  186.130  23.132    9.551  -9.36  -2.54  0000
   83   0.934  8075 8537018  252.691  185.837  23.024   10.101  -9.41  -2.59  0000
   84   0.968  8062 8537019  253.856  186.015  22.773   10.596  -9.25  -2.43  0000
   85   1.001  7356 8537020  254.204  186.011  22.709   10.771  -9.11  -2.29  0000
   86   1.034  7091 8537021  254.695  185.694  22.680   11.157  -9.08  -2.26  0000
   87   1.068  7827 8537022  255.324  185.812  22.542   11.423  -9.30  -2.48  0000
   88   1.101  8266 8537023  255.539  186.102  22.445   11.404  -9.42  -2.60  0000
   89   1.134  8157 8537024  256.857  186.044  22.217   12.110  -9.30  -2.48  0000
   90   1.168  7400 8537025  257.209  185.983  22.166   12.321  -9.16  -2.34  0000
   91   1.201  6989 8537026  257.735  185.827  22.103   12.666  -9.06  -2.24  0000
   92   1.235  7386 8537027  258.192  185.984  21.990   12.840  -9.19  -2.37  0000
   93   1.268  7929 8537028  258.678  185.978  21.905   13.102  -9.39  -2.57  0000
   94   1.301  7966 8537029  259.431  185.764  21.816   13.602  -9.32  -2.50  0000
   95   1.335  7481 8537030  260.397  185.927  21.615   14.059  -9.18  -2.36  0000
   96   1.368  7221 8537031  260.685  185.893  21.572   14.232  -9.09  -2.27  0000
   97   1.401  6981 8537032  261.158  185.926  21.484   14.481  -9.03  -2.21  0000
   98   1.435  7713 8537033  261.633  186.000  21.388   14.715  -9.27  -2.45  0000
   99   1.468  8138 8537034  262.514  185.611  21.319   15.381  -9.36  -2.54  0000
  100   1.502  7456 8537035  263.769  185.828  21.064   16.008  -9.20  -2.38  0000
  101   1.535  7265 8537036  264.140  185.773  21.014   16.248  -9.11  -2.29  0000
  102   1.568  6839 8537037  264.394  185.630  21.002   16.458  -9.00  -2.18  0000
  103   1.602  7288 8537038  265.195  185.654  20.866   16.919  -9.16  -2.34  0000
  104   1.635  7770 8537039  265.563  185.795  20.777   17.078  -9.32  -2.50  0000
  105   1.668  7815 8537040  266.940  185.810  20.553   17.902  -9.24  -2.42  0000
  106   1.702  7264 8537041  267.185  185.775  20.521   18.067  -9.16  -2.34  0000
  107   1.735  6833 8537042  267.647  185.890  20.424   18.302  -9.01  -2.19  0000
  108   1.768  7063 8537043  268.168  185.930  20.334   18.607  -9.07  -2.25  0000
  109   1.802  7188 8537044  268.813  185.905  20.239   19.020  -9.27  -2.45  0000
  110   1.835  7545 8537045  269.371  185.608  20.218   19.494  -9.18  -2.36  0000
  111   1.869  7014 8537046  270.370  185.895  20.005   20.012  -9.11  -2.29  0000
  112   1.902  6919 8537047  270.559  185.964  19.961   20.104  -9.05  -2.23  0000
  113   1.935  6735 8537048  271.145  185.842  19.900   20.533  -8.97  -2.15  0000
  114   1.969  7754 8537049  272.167  185.613  19.801   21.293  -9.20  -2.38  0000
  115   2.002  7760 8537050  273.168  185.844  19.606   21.864  -9.26  -2.44  0000
  116   2.035  7487 8537051  273.865  185.801  19.516   22.348  -9.11  -2.29  0000
  117   2.069  6828 8537052  273.925  185.692  19.532   22.432  -9.09  -2.27  0000
  118   2.102  6404 8537053  274.594  185.466  19.490   22.973  -8.93  -2.11  0000
  119   2.135  7483 8537054  275.194  185.611  19.375   23.327  -9.15  -2.33  0000
  120   2.169  8014 8537055  276.052  185.626  19.255   23.914  -9.27  -2.45  0000
  121   2.202  7463 8537056  276.969  185.797  19.093   24.489  -9.14  -2.32  0000
  122   2.236  7046 8537057  277.285  185.780  19.056   24.719  -9.06  -2.24  0000
  123   2.269  6914 8537058  277.510  185.783  19.025   24.877  -8.98  -2.16  0000
  124   2.302  7474 8537059  278.236  185.766  18.935   25.400  -9.17  -2.35  0000
  125   2.336  8160 8537060  279.154  185.630  18.850   26.112  -9.32  -2.50  0000
  126   2.369  7494 8537061  280.070  185.800  18.697   26.718  -9.16  -2.34  0000
  127   2.402  7277 8537062  280.469  185.833  18.641   26.999  -9.08  -2.26  0000
  128   2.436  6647 8537063  280.676  185.586  18.673   27.239  -9.00  -2.18  0000
  129   2.469  7030 8537064  281.320  185.757  18.556   27.657  -9.17  -2.35  0000
  130   2.503  7858 8537065  282.404  185.593  18.468   28.525  -9.34  -2.52  0000
  131   2.536  7706 8537066  283.374  185.739  18.323   29.212  -9.26  -2.44  0000
  132   2.569  7718 8537067  284.039  185.668  18.266   29.746  -9.24  -2.42  0000
  133   2.603  7306 8537068  284.368  185.516  18.266   30.048  -9.14  -2.32  0000
  134   2.636  7303 8537069  284.859  185.503  18.217   30.432  -9.10  -2.28  0000
  135   2.669  7891 8537070  285.406  185.703  18.110   30.795  -9.28  -2.46  0000
  136   2.703  7447 8537071  286.393  185.432  18.074   31.654  -9.22  -2.40  0000
  137   2.736  7386 8537072  286.997  185.641  17.962   32.069  -9.15  -2.33  0000
  138   2.769  6994 8537073  287.358  185.694  17.913   32.341  -9.07  -2.25  0000
  139   2.803  6935 8537074  287.809  185.697  17.868   32.701  -9.00  -2.18  0000
  140   2.836  7346 8537075  288.322  185.676  17.824   33.121  -9.18  -2.36  0000
  141   2.870  7473 8537076  289.265  185.485  17.783   33.939  -9.19  -2.37  0000
  142   2.903  6758 8537077  289.515  185.301  17.806   34.193  -9.13  -2.31  0000
  143   2.936  6853 8537078  289.658  185.347  17.782   34.297  -9.12  -2.30  0000
  144   2.970  6589 8537079  290.277  184.938  17.828   34.912  -9.04  -2.22  0000
  145   3.003  6755 8537080  290.612  185.006  17.782   35.168  -9.20  -2.38  0000
  146   3.036  7948 8537081  292.187  185.282  17.582   36.400  -9.26  -2.44  0000
  147   3.070  7047 8537082  293.380  185.715  17.379   37.297  -9.08  -2.26  0000
  148   3.103  6938 8537083  293.513  185.538  17.414   37.452  -9.03  -2.21  0000
  149   3.136  6616 8537084  293.905  185.598  17.369   37.770  -8.98  -2.16  0000
  150   3.170  6916 8537085  294.401  185.365  17.391   38.245  -9.06  -2.24  0000
  151   3.203  7183 8537086  295.510  185.481  17.284   39.168  -9.12  -2.30  0000
  152   3.237  6504 8537087  295.988  185.441  17.262   39.589  -9.03  -2.21  0000
  153   3.270  6814 8537088  296.092  185.238  17.307   39.719  -9.05  -2.23  0000
  154   3.303  6240 8537089  297.227  185.539  17.158   40.643  -8.95  -2.13  0000
  155   3.337  6473 8537090  297.755  185.726  17.078   41.069  -8.93  -2.11  0000
  156   3.370  6811 8537091  298.790  185.452  17.089   42.027  -9.00  -2.18  0000
  157   3.403  6709 8537092  299.300  185.380  17.080   42.488  -8.96  -2.14  0000
