#
#   version : 20090611
#    num_fr : 129
#      time : 20140805 03:00:42.055 UTC
#      unix : 1407207642.055886
#       ntp : LOCK -254 295150 374
#       seq : 8537229
#       mul : 0 [A]
#      site : 01
#    latlon : 45.5749 -94.3965 370.0
#      text : Collegeville
#     label : 
#     plate : metal_20100816_20100506-404-gd3
#      geom : 640 480
#    reject : 0
#
#  fr    time   sum     seq       cx       cy      th      phi    lsp    mag  flag
   30  -2.803  6465 8537145  331.633  185.916  17.419   71.501  -9.01  -2.19  0000
   31  -2.769  6748 8537146  331.799  186.038  17.402   71.672  -9.12  -2.30  0000
   32  -2.736  7299 8537147  332.467  185.699  17.542   72.138  -9.20  -2.38  0000
   33  -2.703  7351 8537148  333.864  185.958  17.598   73.361  -9.13  -2.31  0000
   34  -2.669  6399 8537149  334.581  185.694  17.728   73.869  -8.93  -2.11  0000
   35  -2.636  7082 8537150  335.072  185.741  17.762   74.280  -9.03  -2.21  0000
   36  -2.603  6502 8537151  334.821  186.081  17.655   74.178  -9.08  -2.26  0000
   37  -2.569  7237 8537152  335.447  185.671  17.814   74.561  -9.15  -2.33  0000
   38  -2.536  7276 8537153  336.309  185.806  17.864   75.292  -9.17  -2.35  0000
   39  -2.503  6707 8537154  337.376  186.006  17.922   76.201  -8.97  -2.15  0000
   40  -2.469  7159 8537155  337.889  186.015  17.972   76.608  -8.99  -2.17  0000
   41  -2.436  6869 8537156  338.389  186.154  17.991   77.046  -9.04  -2.22  0000
   42  -2.402  7218 8537157  338.520  186.133  18.010   77.141  -9.19  -2.37  0000
   43  -2.369  7083 8537158  338.785  186.040  18.060   77.317  -9.27  -2.45  0000
   44  -2.336  7416 8537159  340.309  186.189  18.191   78.542  -9.10  -2.28  0000
   45  -2.302  6670 8537160  340.976  186.197  18.264   79.053  -8.90  -2.08  0000
   46  -2.269  6453 8537161  341.411  186.269  18.297   79.406  -8.95  -2.13  0000
   47  -2.236  6681 8537162  341.531  186.112  18.348   79.441  -9.04  -2.22  0000
   48  -2.202  6561 8537163  341.904  186.207  18.369   79.755  -9.12  -2.30  0000
   49  -2.169  7036 8537164  342.588  185.916  18.518   80.161  -9.23  -2.41  0000
   50  -2.135  6976 8537165  344.176  186.273  18.627   81.458  -8.98  -2.16  0000
   51  -2.102  6551 8537166  344.724  186.207  18.711   81.831  -8.90  -2.08  0000
   52  -2.069  6671 8537167  345.178  186.292  18.748   82.190  -8.99  -2.17  0000
   53  -2.035  6639 8537168  345.310  186.240  18.777   82.265  -9.01  -2.19  0000
   54  -2.002  6990 8537169  345.516  186.138  18.827   82.374  -9.15  -2.33  0000
   55  -1.969  7628 8537170  346.346  186.567  18.836   83.129  -9.20  -2.38  0000
   56  -1.935  7019 8537171  347.690  186.262  19.083   83.953  -8.99  -2.17  0000
   57  -1.902  6578 8537172  348.105  186.473  19.092   84.324  -8.95  -2.13  0000
   58  -1.869  6488 8537173  348.457  186.252  19.189   84.478  -8.99  -2.17  0000
   59  -1.835  6930 8537174  348.568  186.234  19.209   84.547  -9.08  -2.26  0000
   60  -1.802  6881 8537175  348.984  186.220  19.269   84.826  -9.21  -2.39  0000
   61  -1.768  6779 8537176  349.863  186.508  19.327   85.538  -9.15  -2.33  0000
   62  -1.735  6663 8537177  351.157  186.352  19.546   86.338  -8.97  -2.15  0000
   63  -1.702  6345 8537178  351.392  186.451  19.558   86.533  -8.98  -2.16  0000
   64  -1.668  6821 8537179  351.412  186.420  19.567   86.534  -9.04  -2.22  0000
   65  -1.635  7087 8537180  351.743  186.410  19.618   86.747  -9.14  -2.32  0000
   66  -1.602  7474 8537181  352.678  186.657  19.701   87.460  -9.25  -2.43  0000
   67  -1.568  7055 8537182  353.922  186.432  19.936   88.162  -9.07  -2.25  0000
   68  -1.535  6828 8537183  354.233  186.487  19.971   88.382  -9.03  -2.21  0000
   69  -1.502  7169 8537184  354.886  186.417  20.086   88.763  -9.10  -2.28  0000
   70  -1.468  7356 8537185  355.150  186.497  20.110   88.962  -9.19  -2.37  0000
   71  -1.435  7758 8537186  355.587  186.495  20.177   89.233  -9.33  -2.51  0000
   72  -1.401  7392 8537187  356.000  186.676  20.203   89.565  -9.27  -2.45  0000
   73  -1.368  7096 8537188  357.700  186.548  20.500   90.542  -9.08  -2.26  0000
   74  -1.335  7051 8537189  357.963  186.596  20.532   90.721  -9.09  -2.27  0000
   75  -1.301  7005 8537190  358.263  186.628  20.573   90.913  -9.15  -2.33  0000
   76  -1.268  7240 8537191  358.548  186.723  20.600   91.124  -9.26  -2.44  0000
   77  -1.235  7631 8537192  358.810  186.572  20.674   91.212  -9.38  -2.56  0000
   78  -1.201  7297 8537193  359.777  186.818  20.782   91.887  -9.20  -2.38  0000
   79  -1.168  7062 8537194  360.906  186.595  21.015   92.438  -9.06  -2.24  0000
   80  -1.134  6976 8537195  361.199  186.785  21.026   92.689  -9.07  -2.25  0000
   81  -1.101  6868 8537196  361.463  186.730  21.081   92.815  -9.11  -2.29  0000
   82  -1.068  7432 8537197  361.681  186.621  21.141   92.889  -9.27  -2.45  0000
   83  -1.034  7923 8537198  362.609  186.741  21.274   93.462  -9.43  -2.61  0000
   84  -1.001  6240 8537199  363.469  186.906  21.389   94.010  -9.26  -2.44  0000
   85  -0.968  6985 8537200  364.560  186.837  21.593   94.572  -9.05  -2.23  0000
   86  -0.934  6858 8537201  364.900  186.950  21.630   94.805  -9.06  -2.24  0000
   87  -0.901  7041 8537202  364.619  187.421  21.487   94.868  -9.15  -2.33  0000
   88  -0.868  7326 8537203  364.929  187.419  21.542   95.034  -9.36  -2.54  0000
   89  -0.834  8259 8537204  365.777  186.967  21.782   95.279  -9.43  -2.61  0000
   90  -0.801  7479 8537205  366.669  186.956  21.943   95.742  -9.24  -2.42  0000
   91  -0.767  7441 8537206  367.771  186.890  22.155   96.281  -9.14  -2.32  0000
   92  -0.734  7074 8537207  368.066  186.904  22.206   96.437  -9.09  -2.27  0000
   93  -0.701  7090 8537208  368.463  186.845  22.290   96.612  -9.17  -2.35  0000
   94  -0.667  7832 8537209  368.693  186.754  22.349   96.687  -9.38  -2.56  0000
   95  -0.634  8363 8537210  369.610  187.138  22.444   97.320  -9.43  -2.61  0000
   96  -0.601  7744 8537211  369.938  187.165  22.500   97.495  -9.30  -2.48  0000
   97  -0.567  7282 8537212  371.012  187.115  22.710   97.998  -9.18  -2.36  0000
   98  -0.534  7268 8537213  371.216  187.122  22.747   98.100  -9.17  -2.35  0000
   99  -0.500  6809 8537214  371.628  187.215  22.807   98.341  -9.25  -2.43  0000
  100  -0.467  7404 8537215  371.991  187.465  22.829   98.630  -9.34  -2.52  0000
  101  -0.434  8324 8537216  372.748  187.274  23.008   98.902  -9.44  -2.62  0000
  102  -0.400  8405 8537217  373.746  187.931  23.078   99.672  -9.36  -2.54  0000
  103  -0.367  7431 8537218  374.191  188.104  23.133   99.958  -9.22  -2.40  0000
  104  -0.334  7514 8537219  374.402  188.206  23.155  100.103  -9.27  -2.45  0000
  105  -0.300  7591 8537220  375.129  187.142  23.491   99.943  -9.22  -2.40  0000
  106  -0.267  7565 8537221  375.616  187.521  23.516  100.337  -9.31  -2.49  0000
  107  -0.234  7974 8537222  375.914  187.336  23.608  100.386  -9.44  -2.62  0000
  108  -0.200  8051 8537223  377.072  188.008  23.715  101.209  -9.30  -2.48  0000
  109  -0.167  7429 8537224  377.289  188.283  23.709  101.432  -9.19  -2.37  0000
  110  -0.133  7254 8537225  377.619  188.230  23.784  101.552  -9.24  -2.42  0000
  111  -0.100  7360 8537226  378.362  187.357  24.088  101.471  -9.24  -2.42  0000
  112  -0.067  7715 8537227  378.743  187.897  24.068  101.882  -9.29  -2.47  0000
  113  -0.033  7460 8537228  379.049  187.775  24.151  101.957  -9.41  -2.59  0000
  114   0.000  8563 8537229  380.203  188.235  24.303  102.655  -9.37  -2.55  0000
  115   0.033  7740 8537230  380.504  188.369  24.341  102.842  -9.22  -2.40  0000
  116   0.067  7676 8537231  380.790  188.449  24.386  102.998  -9.27  -2.45  0000
  117   0.100  7588 8537232  381.371  188.105  24.564  103.078  -9.31  -2.49  0000
  118   0.133  7538 8537233  381.902  188.047  24.683  103.267  -9.25  -2.43  0000
  119   0.167  7147 8537234  382.129  188.082  24.723  103.376  -9.37  -2.55  0000
  120   0.200  8321 8537235  383.610  188.095  25.026  103.973  -9.34  -2.52  0000
  121   0.234  7989 8537236  383.934  188.479  25.029  104.277  -9.23  -2.41  0000
  122   0.267  7696 8537237  384.306  188.516  25.100  104.439  -9.28  -2.46  0000
  123   0.300  7667 8537238  384.475  188.515  25.136  104.504  -9.29  -2.47  0000
  124   0.334  7679 8537239  385.353  187.777  25.443  104.506  -9.30  -2.48  0000
  125   0.367  7681 8537240  385.697  187.820  25.508  104.658  -9.34  -2.52  0000
  126   0.400  8412 8537241  386.435  188.813  25.498  105.391  -9.37  -2.55  0000
  127   0.434  7807 8537242  387.030  188.547  25.668  105.492  -9.21  -2.39  0000
  128   0.467  7883 8537243  387.331  188.730  25.702  105.688  -9.26  -2.44  0000
  129   0.501  6786 8537244  387.850  188.636  25.828  105.836  -9.29  -2.47  0000
  130   0.534  7608 8537245  388.399  188.309  25.998  105.889  -9.28  -2.46  0000
  131   0.567  7878 8537246  388.758  188.167  26.098  105.955  -9.33  -2.51  0000
  132   0.601  7590 8537247  388.995  188.324  26.123  106.112  -9.35  -2.53  0000
  133   0.634  7965 8537248  390.162  188.644  26.322  106.675  -9.28  -2.46  0000
  134   0.667  7777 8537249  390.470  188.791  26.365  106.850  -9.29  -2.47  0000
  135   0.701  7625 8537250  390.825  188.837  26.434  106.996  -9.34  -2.52  0000
  136   0.734  7512 8537251  390.877  188.719  26.465  106.960  -9.28  -2.46  0000
  137   0.767  7352 8537252  391.863  188.376  26.733  107.148  -9.25  -2.43  0000
  138   0.801  7247 8537253  392.011  188.345  26.770  107.186  -9.25  -2.43  0000
  139   0.834  7739 8537254  393.272  189.057  26.933  107.935  -9.21  -2.39  0000
  140   0.868  7900 8537255  393.466  189.201  26.954  108.065  -9.27  -2.45  0000
  141   0.901  7437 8537256  393.854  189.231  27.034  108.208  -9.33  -2.51  0000
  142   0.934  6827 8537257  394.730  188.961  27.269  108.377  -9.32  -2.50  0000
  143   0.968  7460 8537258  394.763  188.590  27.334  108.222  -9.36  -2.54  0000
  144   1.001  7774 8537259  395.568  188.434  27.536  108.417  -9.29  -2.47  0000
  145   1.034  6413 8537260  395.997  188.832  27.570  108.732  -9.21  -2.39  0000
  146   1.068  7587 8537261  396.556  189.350  27.615  109.142  -9.15  -2.33  0000
  147   1.101  7142 8537262  396.928  189.454  27.682  109.307  -9.23  -2.41  0000
  148   1.134  7417 8537263  396.999  189.320  27.718  109.269  -9.35  -2.53  0000
  149   1.168  7610 8537264  397.919  189.037  27.967  109.434  -9.35  -2.53  0000
  150   1.201  7961 8537265  398.453  188.708  28.136  109.455  -9.34  -2.52  0000
  151   1.235  7443 8537266  398.759  188.758  28.197  109.572  -9.29  -2.47  0000
  152   1.268  7849 8537267  399.927  189.235  28.389  110.139  -9.24  -2.42  0000
  153   1.301  7588 8537268  400.206  189.208  28.456  110.211  -9.16  -2.34  0000
  154   1.335  7390 8537269  400.562  189.558  28.485  110.472  -9.24  -2.42  0000
  155   1.368  7506 8537270  400.746  189.335  28.560  110.429  -9.38  -2.56  0000
  156   1.401  7253 8537271  401.005  189.259  28.629  110.473  -9.31  -2.49  0000
  157   1.435  7105 8537272  401.772  188.995  28.842  110.585  -9.24  -2.42  0000
  158   1.468  7558 8537273  402.513  189.981  28.868  111.231  -9.22  -2.40  0000
