#
#   version : 20090611
#    num_fr : 64
#      time : 20151205 01:33:00.081 UTC
#      unix : 1449279180.081311
#       ntp : LOCK -2367 259156 1859
#       seq : 26844320
#       mul : 0 [A]
#      site : 01
#    latlon : 45.5749 -94.3965 370.0
#      text : Collegeville
#     label : 
#     plate : metal_20100816_20100506-404-gd3
#      geom : 640 480
#    reject : 0
#
#  fr    time   sum     seq       cx       cy      th      phi    lsp    mag  flag
   30  -1.001  2004 26844290  294.569  143.715  28.126   44.114  -6.41   0.41  0000
   32  -0.934  2536 26844292  297.996  145.097  27.619   45.889  -6.90  -0.08  0000
   33  -0.901  2459 26844293  298.619  145.126  27.589   46.233  -6.73   0.09  0000
   34  -0.868  2433 26844294  300.818  146.090  27.262   47.405  -6.94  -0.12  0000
   35  -0.834  2566 26844295  302.419  146.608  27.080   48.284  -7.01  -0.19  0000
   36  -0.801  2830 26844296  303.048  147.184  26.911   48.615  -7.34  -0.52  0000
   37  -0.767  2504 26844297  304.611  148.175  26.614   49.474  -6.92  -0.10  0000
   38  -0.734  2763 26844298  306.241  148.293  26.553   50.415  -7.32  -0.50  0000
   39  -0.701  2891 26844299  307.793  149.006  26.342   51.303  -7.39  -0.57  0000
   40  -0.667  2903 26844300  307.854  150.143  26.040   51.316  -7.52  -0.70  0000
   41  -0.634  3187 26844301  310.802  150.275  25.982   53.063  -7.49  -0.67  0000
   42  -0.601  3034 26844302  311.073  151.090  25.765   53.224  -7.64  -0.82  0000
   43  -0.567  3376 26844303  313.823  151.691  25.609   54.879  -7.61  -0.79  0000
   44  -0.534  3265 26844304  314.568  152.093  25.507   55.336  -7.65  -0.83  0000
   45  -0.500  3413 26844305  316.374  152.786  25.341   56.448  -7.82  -1.00  0000
   46  -0.467  3587 26844306  317.970  153.969  25.052   57.468  -7.85  -1.03  0000
   47  -0.434  3713 26844307  319.151  154.224  25.007   58.204  -7.92  -1.10  0000
   48  -0.400  3701 26844308  321.082  155.196  24.797   59.450  -7.99  -1.17  0000
   49  -0.367  3847 26844309  321.742  155.920  24.624   59.908  -7.80  -0.98  0000
   50  -0.334  3688 26844310  324.643  156.836  24.480   61.786  -8.02  -1.20  0000
   51  -0.300  4040 26844311  324.905  157.618  24.285   62.020  -8.09  -1.27  0000
   52  -0.267  3932 26844312  327.268  158.146  24.247   63.553  -8.16  -1.34  0000
   53  -0.234  3988 26844313  329.243  158.895  24.148   64.875  -8.22  -1.40  0000
   54  -0.200  4163 26844314  330.192  159.899  23.939   65.598  -8.25  -1.43  0000
   55  -0.167  4314 26844315  331.906  160.677  23.838   66.784  -8.24  -1.42  0000
   56  -0.133  4398 26844316  334.307  161.466  23.789   68.411  -8.44  -1.62  0000
   57  -0.100  4435 26844317  335.224  162.031  23.709   69.077  -8.34  -1.52  0000
   58  -0.067  4140 26844318  337.428  163.471  23.508   70.714  -8.37  -1.55  0000
   59  -0.033  4589 26844319  338.491  163.863  23.494   71.453  -8.36  -1.54  0000
   60   0.000  4920 26844320  341.137  164.684  23.516   73.262  -8.54  -1.72  0000
   61   0.033  4824 26844321  342.744  165.742  23.402   74.486  -8.68  -1.86  0000
   62   0.067  4839 26844322  344.450  166.641  23.348   75.742  -8.62  -1.80  0000
   63   0.100  4880 26844323  346.690  167.863  23.284   77.409  -8.62  -1.80  0000
   64   0.133  3996 26844324  347.829  168.488  23.258   78.260  -8.42  -1.60  0000
   65   0.167  4558 26844325  350.169  169.498  23.286   79.937  -8.58  -1.76  0000
   66   0.200  4150 26844326  351.595  170.249  23.281   80.995  -8.41  -1.59  0000
   67   0.234  4575 26844327  353.156  171.620  23.158   82.323  -8.50  -1.68  0000
   68   0.267  3917 26844328  355.710  172.302  23.338   84.010  -8.32  -1.50  0000
   69   0.300  4180 26844329  357.701  173.616  23.317   85.570  -8.45  -1.63  0000
   70   0.334  4392 26844330  360.516  174.643  23.498   87.480  -8.37  -1.55  0000
   71   0.367  3918 26844331  361.128  175.816  23.334   88.233  -8.43  -1.61  0000
   72   0.400  3767 26844332  363.415  176.638  23.512   89.762  -8.24  -1.42  0000
   73   0.434  4054 26844333  365.209  177.761  23.562   91.128  -8.37  -1.55  0000
   74   0.467  3926 26844334  366.966  178.552  23.688   92.338  -8.30  -1.48  0000
   75   0.500  4199 26844335  368.372  179.940  23.643   93.600  -8.37  -1.55  0000
   76   0.534  3811 26844336  371.143  180.588  23.999   95.223  -8.32  -1.50  0000
   77   0.567  4251 26844337  373.133  182.310  24.023   96.888  -8.32  -1.50  0000
   78   0.601  4149 26844338  375.530  182.979  24.342   98.276  -8.32  -1.50  0000
   79   0.634  3901 26844339  376.442  183.983  24.327   99.120  -8.21  -1.39  0000
   80   0.667  4173 26844340  378.563  185.309  24.496  100.632  -8.26  -1.44  0000
   81   0.701  3916 26844341  380.842  186.129  24.802  101.962  -8.24  -1.42  0000
   82   0.734  4061 26844342  382.745  187.858  24.888  103.521  -8.09  -1.27  0000
   83   0.767  3668 26844343  384.379  188.368  25.140  104.399  -8.06  -1.24  0000
   84   0.801  3882 26844344  386.044  189.918  25.234  105.755  -8.32  -1.50  0000
   85   0.834  4551 26844345  388.174  190.693  25.565  106.904  -8.54  -1.72  0000
   86   0.868  4205 26844346  390.370  191.749  25.878  108.179  -8.33  -1.51  0000
   87   0.901  3580 26844347  391.500  193.322  25.888  109.309  -8.10  -1.28  0000
   88   0.934  3529 26844348  393.789  194.242  26.265  110.504  -7.84  -1.02  0000
   89   0.968  2790 26844349  395.330  195.609  26.419  111.645  -7.45  -0.63  0000
   90   1.001  2989 26844350  397.654  196.311  26.857  112.690  -7.58  -0.76  0000
   91   1.034  3026 26844351  397.768  197.521  26.718  113.303  -7.52  -0.70  0000
   92   1.068  2749 26844352  401.185  198.303  27.417  114.651  -7.70  -0.88  0000
   93   1.101  2404 26844353  401.277  199.905  27.233  115.445  -6.88  -0.06  0000
   94   1.134  2001 26844354  403.978  200.064  27.860  116.236  -6.33   0.49  0000
