#
#   version : 20090611
#    num_fr : 29
#      time : 20140211 04:15:13.394 UTC
#      unix : 1392092113.394885
#       ntp : LOCK -470 740316 1027
#       seq : 435112797
#       mul : 0 [A]
#      site : 01
#    latlon : 45.5749 -94.3965 370.0
#      text : Collegeville
#     label : 
#     plate : metal_20100816_20100506-404-gd3
#      geom : 640 480
#    reject : 0
#
#  fr    time   sum     seq       cx       cy      th      phi    lsp    mag  flag
   29  -0.901  4246 435112770  268.066  144.817  29.920   30.344  -6.22   0.60  0000
   30  -0.868  2779 435112771  268.551  144.445  29.959   30.647  -6.90  -0.08  0000
   31  -0.834  3579 435112772  270.978  143.984  29.818   31.900  -7.03  -0.21  0000
   32  -0.801  4385 435112773  271.154  144.805  29.596   31.835  -7.37  -0.55  0000
   33  -0.767  3945 435112774  274.564  144.938  29.227   33.492  -7.56  -0.74  0000
   34  -0.734  3796 435112775  275.129  144.650  29.246   33.823  -7.58  -0.76  0000
   35  -0.701  3929 435112776  277.681  145.072  28.909   35.038  -7.69  -0.87  0000
   36  -0.667  4103 435112777  278.335  144.908  28.894   35.398  -7.92  -1.10  0000
   37  -0.634  4199 435112778  280.630  145.079  28.659   36.550  -7.91  -1.09  0000
   38  -0.601  5762 435112779  281.169  145.206  28.583   36.810  -8.08  -1.26  0000
   39  -0.567  5912 435112780  283.884  145.810  28.220   38.146  -8.39  -1.57  0000
   40  -0.534  7098 435112781  284.465  145.814  28.177   38.453  -8.48  -1.66  0000
   41  -0.501  7158 435112782  286.523  146.606  27.829   39.450  -8.55  -1.73  0000
   42  -0.467  7504 435112783  287.820  145.961  27.911   40.230  -8.54  -1.72  0000
   43  -0.434  5915 435112784  290.572  146.077  27.714   41.711  -8.71  -1.89  0000
   44  -0.400  5856 435112785  292.805  146.530  27.475   42.892  -8.69  -1.87  0000
   45  -0.367  7234 435112786  294.425  146.145  27.495   43.825  -8.74  -1.92  0000
   46  -0.334  7422 435112787  295.685  147.601  27.056   44.403  -8.64  -1.82  0000
   47  -0.300  6084 435112788  298.524  147.569  26.949   46.013  -8.59  -1.77  0000
   48  -0.267  7187 435112789  299.928  147.678  26.871   46.805  -8.85  -2.03  0000
   49  -0.234  7257 435112790  302.570  148.005  26.706   48.302  -8.49  -1.67  0000
   50  -0.200  7516 435112791  304.605  148.538  26.518   49.457  -8.51  -1.69  0000
   51  -0.167  7423 435112792  306.034  148.144  26.596   50.299  -8.32  -1.50  0000
   52  -0.133  8150 435112793  309.543  148.158  26.550   52.336  -8.41  -1.59  0000
   53  -0.100  6572 435112794  311.031  149.475  26.193   53.200  -8.50  -1.68  0000
   54  -0.067  6962 435112795  314.721  149.075  26.308   55.366  -8.88  -2.06  0000
   55  -0.033  7761 435112796  317.660  148.962  26.371   57.082  -9.33  -2.51  0000
   56   0.000  8972 435112797  318.046  149.202  26.313   57.317  -9.49  -2.67  0000
   57   0.033  8147 435112798  320.776  148.982  26.427   58.899  -9.50  -2.68  0000
